#Wavelength	Counts
1596.242	2176
1596.106	2069
1595.969	2115
1595.832	2076
1595.695	2120
1595.558	2050
1595.421	2118
1595.284	2053
1595.146	2123
1595.009	2060
1594.871	2117
1594.733	2062
1594.595	2121
1594.457	2067
1594.319	2129
1594.181	2069
1594.042	2120
1593.904	2081
1593.765	2117
1593.626	2062
1593.487	2120
1593.348	2060
1593.209	2116
1593.070	2064
1592.930	2122
1592.790	2072
1592.651	2133
1592.511	2060
1592.371	2125
1592.231	2071
1592.091	2140
1591.950	2066
1591.810	2115
1591.669	2074
1591.529	2122
1591.388	2078
1591.247	2106
1591.106	2075
1590.965	2111
1590.823	2069
1590.682	2106
1590.540	2065
1590.399	2115
1590.257	2070
1590.115	2119
1589.973	2068
1589.830	2104
1589.688	2073
1589.546	2113
1589.403	2064
1589.260	2106
1589.118	2054
1588.975	2113
1588.832	2075
1588.688	2119
1588.545	2079
1588.402	2123
1588.258	2065
1588.114	2123
1587.970	2063
1587.826	2112
1587.682	2057
1587.538	2124
1587.394	2072
1587.249	2108
1587.105	2058
1586.960	2113
1586.815	2069
1586.670	2121
1586.525	2072
1586.380	2128
1586.235	2069
1586.089	2117
1585.944	2062
1585.798	2110
1585.652	2070
1585.506	2108
1585.360	2070
1585.214	2117
1585.067	2057
1584.921	2109
1584.774	2061
1584.628	2126
1584.481	2065
1584.334	2112
1584.187	2067
1584.040	2100
1583.892	2062
1583.745	2129
1583.597	2053
1583.449	2115
1583.302	2066
1583.154	2115
1583.005	2083
1582.857	2123
1582.709	2070
1582.560	2127
1582.412	2046
1582.263	2120
1582.114	2061
1581.965	2109
1581.816	2072
1581.667	2114
1581.518	2069
1581.368	2117
1581.218	2071
1581.069	2124
1580.919	2061
1580.769	2117
1580.619	2061
1580.468	2112
1580.318	2053
1580.168	2108
1580.017	2047
1579.866	2104
1579.715	2052
1579.564	2108
1579.413	2078
1579.262	2108
1579.111	2062
1578.959	2115
1578.808	2078
1578.656	2122
1578.504	2047
1578.352	2112
1578.200	2060
1578.047	2108
1577.895	2062
1577.743	2103
1577.590	2070
1577.437	2114
1577.284	2061
1577.131	2122
1576.978	2068
1576.825	2123
1576.671	2058
1576.518	2117
1576.364	2070
1576.210	2106
1576.057	2047
1575.902	2112
1575.748	2065
1575.594	2112
1575.440	2054
1575.285	2122
1575.130	2057
1574.976	2127
1574.821	2068
1574.666	2115
1574.510	2049
1574.355	2114
1574.200	2048
1574.044	2109
1573.889	2063
1573.733	2115
1573.577	2057
1573.421	2112
1573.265	2054
1573.108	2111
1572.952	2067
1572.795	2127
1572.638	2065
1572.482	2113
1572.325	2065
1572.168	2114
1572.010	2053
1571.853	2114
1571.696	2065
1571.538	2113
1571.380	2065
1571.222	2111
1571.064	2060
1570.906	2128
1570.748	2062
1570.590	2111
1570.431	2055
1570.273	2127
1570.114	2047
1569.955	2128
1569.796	2051
1569.637	2121
1569.478	2066
1569.318	2124
1569.159	2055
1568.999	2111
1568.840	2065
1568.680	2127
1568.520	2057
1568.359	2117
1568.199	2064
1568.039	2123
1567.878	2057
1567.718	2116
1567.557	2056
1567.396	2121
1567.235	2063
1567.074	2115
1566.912	2070
1566.751	2139
1566.590	2086
1566.428	2136
1566.266	2088
1566.104	2163
1565.942	2113
1565.780	2181
1565.618	2118
1565.455	2182
1565.293	2134
1565.130	2191
1564.967	2139
1564.804	2201
1564.641	2138
1564.478	2192
1564.314	2124
1564.151	2184
1563.987	2135
1563.824	2177
1563.660	2141
1563.496	2195
1563.332	2130
1563.168	2184
1563.003	2132
1562.839	2194
1562.674	2136
1562.509	2198
1562.344	2131
1562.179	2197
1562.014	2147
1561.849	2186
1561.684	2109
1561.518	2199
1561.352	2132
1561.187	2183
1561.021	2143
1560.855	2196
1560.689	2130
1560.522	2194
1560.356	2135
1560.189	2204
1560.023	2129
1559.856	2202
1559.689	2136
1559.522	2186
1559.355	2122
1559.187	2190
1559.020	2118
1558.852	2187
1558.685	2116
1558.517	2182
1558.349	2131
1558.181	2184
1558.012	2122
1557.844	2174
1557.676	2119
1557.507	2187
1557.338	2111
1557.169	2183
1557.000	2112
1556.831	2184
1556.662	2138
1556.493	2182
1556.323	2127
1556.154	2189
1555.984	2124
1555.814	2186
1555.644	2104
1555.474	2198
1555.303	2126
1555.133	2188
1554.962	2110
1554.792	2174
1554.621	2116
1554.450	2189
1554.279	2111
1554.108	2183
1553.936	2130
1553.765	2192
1553.593	2121
1553.422	2208
1553.250	2109
1553.078	2184
1552.906	2118
1552.734	2183
1552.561	2118
1552.389	2193
1552.216	2116
1552.043	2187
1551.870	2120
1551.697	2174
1551.524	2128
1551.351	2192
1551.178	2118
1551.004	2179
1550.830	2120
1550.657	2183
1550.483	2116
1550.309	2175
1550.135	2117
1549.960	2183
1549.786	2112
1549.611	2181
1549.437	2114
1549.262	2184
1549.087	2128
1548.912	2197
1548.736	2161
1548.561	2339
1548.386	2520
1548.210	2516
1548.034	2169
1547.858	2190
1547.682	2111
1547.506	2180
1547.330	2118
1547.154	2178
1546.977	2117
1546.801	2181
1546.624	2122
1546.447	2174
1546.270	2111
1546.093	2186
1545.915	2117
1545.738	2184
1545.560	2122
1545.383	2175
1545.205	2116
1545.027	2171
1544.849	2113
1544.671	2183
1544.492	2115
1544.314	2172
1544.135	2118
1543.957	2170
1543.778	2134
1543.599	2180
1543.420	2107
1543.240	2169
1543.061	2124
1542.881	2172
1542.702	2109
1542.522	2170
1542.342	2125
1542.162	2179
1541.982	2095
1541.802	2171
1541.621	2101
1541.441	2180
1541.260	2093
1541.079	2176
1540.898	2104
1540.717	2162
1540.536	2110
1540.355	2167
1540.173	2109
1539.992	2167
1539.810	2105
1539.628	2163
1539.446	2099
1539.264	2157
1539.082	2102
1538.899	2172
1538.717	2095
1538.534	2167
1538.351	2090
1538.168	2149
1537.985	2104
1537.802	2163
1537.619	2106
1537.435	2164
1537.252	2113
1537.068	2159
1536.884	2106
1536.700	2159
1536.516	2091
1536.332	2160
1536.148	2088
1535.963	2150
1535.779	2093
1535.594	2151
1535.409	2105
1535.224	2168
1535.039	2105
1534.854	2160
1534.668	2093
1534.483	2168
1534.297	2098
1534.111	2157
1533.925	2079
1533.739	2144
1533.553	2091
1533.367	2142
1533.180	2090
1532.994	2146
1532.807	2090
1532.620	2148
1532.433	2098
1532.246	2152
1532.059	2089
1531.872	2161
1531.684	2093
1531.497	2149
1531.309	2092
1531.121	2140
1530.933	2078
1530.745	2148
1530.557	2083
1530.368	2138
1530.180	2078
1529.991	2152
1529.802	2077
1529.613	2150
1529.424	2077
1529.235	2137
1529.046	2074
1528.856	2153
1528.667	2086
1528.477	2135
1528.287	2084
1528.097	2127
1527.907	2073
1527.717	2135
1527.526	2067
1527.336	2133
1527.145	2066
1526.955	2134
1526.764	2064
1526.573	2132
1526.381	2060
1526.190	2120
1525.999	2063
1525.807	2120
1525.616	2079
1525.424	2099
1525.232	2052
1525.040	2112
1524.848	2035
1524.655	2108
1524.463	2038
1524.270	2103
1524.077	2057
1523.885	2114
1523.692	2068
1523.498	2111
1523.305	2058
1523.112	2116
1522.918	2059
1522.725	2114
1522.531	2058
1522.337	2124
1522.143	2042
1521.949	2115
1521.754	2050
1521.560	2108
1521.365	2053
1521.171	2109
1520.976	2050
1520.781	2109
1520.586	2059
1520.391	2110
1520.195	2043
1520.000	2106
1519.804	2053
1519.609	2111
1519.413	2042
1519.217	2121
1519.021	2043
1518.824	2123
1518.628	2064
1518.431	2120
1518.235	2059
1518.038	2119
1517.841	2045
1517.644	2107
1517.447	2064
1517.249	2120
1517.052	2043
1516.854	2112
1516.657	2048
1516.459	2115
1516.261	2052
1516.063	2106
1515.865	2058
1515.666	2136
1515.468	2052
1515.269	2109
1515.070	2047
1514.872	2124
1514.673	2045
1514.473	2120
1514.274	2063
1514.075	2107
1513.875	2058
1513.676	2108
1513.476	2052
1513.276	2121
1513.076	2061
1512.876	2123
1512.675	2051
1512.475	2114
1512.274	2054
1512.074	2109
1511.873	2052
1511.672	2125
1511.471	2073
1511.269	2118
1511.068	2065
1510.867	2115
1510.665	2061
1510.463	2117
1510.261	2065
1510.059	2101
1509.857	2060

